Energy [MeV];Cross-Section [barns]
1E-11;2.82021E-07
1.10304E-11;2.68526E-07
1.21669E-11;2.55677E-07
1.34206E-11;2.43443E-07
1.48034E-11;2.31794E-07
1.63287E-11;2.20702E-07
1.80111E-11;2.10142E-07
1.98669E-11;2.00086E-07
2.19139E-11;1.90512E-07
2.41719E-11;1.81396E-07
2.66625E-11;1.72716E-07
2.94097E-11;1.64451E-07
3.244E-11;1.56582E-07
3.57825E-11;1.49089E-07
3.94694E-11;1.41955E-07
4.35362E-11;1.35163E-07
4.80221E-11;1.28695E-07
5.29701E-11;1.22537E-07
5.8428E-11;1.16673E-07
6.44483E-11;1.1109E-07
7.10888E-11;1.05775E-07
7.84136E-11;1.00713E-07
8.64931E-11;9.5894E-08
9.54051E-11;9.13054E-08
1.05235E-10;8.69363E-08
1.16078E-10;8.27764E-08
1.28039E-10;7.88154E-08
1.41231E-10;7.5044E-08
1.55784E-10;7.14531E-08
1.71835E-10;6.8034E-08
1.8954E-10;6.47785E-08
2.0907E-10;6.16788E-08
2.30612E-10;5.87274E-08
2.54374E-10;5.59173E-08
2.80584E-10;5.32416E-08
3.09494E-10;5.06939E-08
3.41383E-10;4.82682E-08
3.76558E-10;4.59585E-08
4.15358E-10;4.37594E-08
4.58155E-10;4.16654E-08
5.05362E-10;3.96717E-08
5.57433E-10;3.77734E-08
6.14869E-10;3.59659E-08
6.78223E-10;3.42449E-08
7.48105E-10;3.26062E-08
8.25188E-10;3.1046E-08
9.10213E-10;2.95604E-08
1.004E-09;2.81459E-08
1.10745E-09;2.67991E-08
1.22155E-09;2.55168E-08
1.34742E-09;2.42958E-08
1.48625E-09;2.31332E-08
1.63939E-09;2.20262E-08
1.80831E-09;2.09723E-08
1.99463E-09;1.99687E-08
2.20016E-09;1.90132E-08
2.42685E-09;1.81034E-08
2.67691E-09;1.72371E-08
2.95273E-09;1.64123E-08
3.25697E-09;1.5627E-08
3.59256E-09;1.48792E-08
3.96272E-09;1.41672E-08
4.37103E-09;1.34893E-08
4.82141E-09;1.28438E-08
5.31819E-09;1.22293E-08
5.86616E-09;1.16441E-08
6.47059E-09;1.10869E-08
7.1373E-09;1.05564E-08
7.87271E-09;1.00512E-08
8.68389E-09;9.57028E-09
9.57865E-09;9.11234E-09
1.05656E-08;8.67631E-09
1.16543E-08;8.26115E-09
1.28551E-08;7.86586E-09
1.41796E-08;7.4895E-09
1.56406E-08;7.13119E-09
1.72522E-08;6.79008E-09
1.90298E-08;6.46539E-09
2.09906E-08;6.15635E-09
2.31534E-08;5.86223E-09
2.52419E-08;5.61496E-09
2.53E-08;5.60852E-09
2.79068E-08;5.34069E-09
3.07823E-08;5.08556E-09
3.3954E-08;4.84245E-09
3.74525E-08;4.61076E-09
4.13115E-08;4.39004E-09
4.55681E-08;4.17988E-09
5.02633E-08;3.97984E-09
5.54423E-08;3.78945E-09
6.11549E-08;3.6082E-09
6.74561E-08;3.43563E-09
7.44066E-08;3.27125E-09
8.20732E-08;3.11461E-09
9.05297E-08;2.96544E-09
9.98577E-08;2.82352E-09
1.10147E-07;2.68849E-09
1.21496E-07;2.5599E-09
1.34014E-07;2.43747E-09
1.47823E-07;2.32093E-09
1.63054E-07;2.20976E-09
1.79855E-07;2.10385E-09
1.98386E-07;2.00317E-09
2.18827E-07;1.9074E-09
2.41375E-07;1.81621E-09
2.66245E-07;1.72925E-09
2.93678E-07;1.64669E-09
3.26223E-07;1.56227E-09
3.59836E-07;1.48734E-09
3.96913E-07;1.41621E-09
4.37809E-07;1.34846E-09
4.86303E-07;1.27961E-09
5.3641E-07;1.21823E-09
5.95854E-07;1.15609E-09
6.61852E-07;1.09677E-09
7.30048E-07;1.04421E-09
8.0527E-07;9.9428E-10
8.88242E-07;9.467E-10
9.86675E-07;8.9838E-10
1.08072E-06;8.5824E-10
1.20048E-06;8.1446E-10
1.34285E-06;7.6992E-10
1.48122E-06;7.3312E-10
1.63384E-06;6.9805E-10
1.80218E-06;6.6462E-10
2.01592E-06;6.2842E-10
2.1927E-06;6.0258E-10
2.43557E-06;5.7181E-10
2.70547E-06;5.4239E-10
2.96333E-06;5.1835E-10
3.24593E-06;4.9528E-10
3.5553E-06;4.732E-10
3.89435E-06;4.5232E-10
4.23585E-06;4.3343E-10
4.77141E-06;4.0858E-10
4.80507E-06;4.0702E-10
5.37494E-06;3.8493E-10
5.41259E-06;3.8347E-10
5.88723E-06;3.6786E-10
5.92876E-06;3.6649E-10
6.40349E-06;3.5272E-10
6.44866E-06;3.5141E-10
6.96502E-06;3.3818E-10
7.01416E-06;3.3692E-10
7.5231E-06;3.2546E-10
7.5758E-06;3.2427E-10
8.35638E-06;3.0859E-10
9.15328E-06;2.9504E-10
9.81744E-06;2.8484E-10
0.000010829;2.7111E-10
1.17786E-05;2.6002E-10
1.27218E-05;2.5017E-10
1.38374E-05;2.3986E-10
1.50508E-05;2.3004E-10
1.66016E-05;2.1893E-10
1.79318E-05;2.1079E-10
1.93676E-05;2.0274E-10
1.95042E-05;2.0208E-10
2.15139E-05;1.9233E-10
2.16646E-05;1.917E-10
2.34005E-05;1.8447E-10
2.54525E-05;1.7687E-10
2.76845E-05;1.6958E-10
2.99012E-05;1.6319E-10
3.32148E-05;1.5478E-10
3.58744E-05;1.4903E-10
3.87489E-05;1.4334E-10
4.30409E-05;1.3597E-10
4.68152E-05;1.3042E-10
5.05663E-05;1.2547E-10
5.53858E-05;1.1989E-10
5.98236E-05;1.1537E-10
6.64498E-05;1.0943E-10
7.12714E-05;1.0572E-10
7.75213E-05;1.0134E-10
8.61121E-05;9.6135E-11
9.30073E-05;9.2519E-11
9.36634E-05;9.2213E-11
0.000101163;8.8709E-11
0.000110034;8.5052E-11
0.000119684;8.1569E-11
0.000132947;7.7368E-11
0.000142593;7.4746E-11
0.000155097;7.1645E-11
0.000172276;6.7968E-11
0.00018608;6.541E-11
0.000202398;6.2716E-11
0.000220147;6.0131E-11
0.000239452;5.7668E-11
0.000265974;5.4699E-11
0.000285273;5.2846E-11
0.000310289;5.0654E-11
0.000344675;4.8052E-11
0.000372274;4.6245E-11
0.000404919;4.4341E-11
0.000440427;4.2513E-11
0.000475716;4.0907E-11
0.000528408;3.8805E-11
0.000566749;3.7489E-11
0.000620797;3.5812E-11
0.000688342;3.4002E-11
0.000743496;3.2723E-11
0.000808694;3.1375E-11
0.000885771;2.998E-11
0.000956744;2.885E-11
0.00105686;2.7439E-11
0.00113355;2.6507E-11
0.00124165;2.5322E-11
0.00137668;2.4043E-11
0.00148699;2.3138E-11
0.00161739;2.2185E-11
0.00177154;2.1199E-11
0.00191349;2.0399E-11
0.00211372;1.9402E-11
0.00226709;1.8744E-11
0.00247954;1.7918E-11
0.00275337;1.7001E-11
0.00297398;1.6361E-11
0.00323478;1.5687E-11
0.00353657;1.5003E-11
0.00380896;1.4457E-11
0.00422745;1.372E-11
0.00453419;1.3254E-11
0.00495908;1.267E-11
0.00550674;1.2021E-11
0.00594797;1.1569E-11
0.00646955;1.1093E-11
0.00707399;1.0608E-11
0.00763274;1.0213E-11
0.00822248;9.8393E-12
0.00913073;9.3351E-12
0.00937243;9.2124E-12
0.00937643;9.2304E-12
0.00937743;9.2655E-12
0.00937843;9.3516E-12
0.00937918;9.4827E-12
0.00937968;9.6221E-12
0.00938018;9.8214E-12
0.00938056;1.0022E-11
0.00938093;1.0277E-11
0.00938131;1.0598E-11
0.00938168;1.0997E-11
0.00938206;1.1487E-11
0.00938231;1.1872E-11
0.00938256;1.2307E-11
0.00938281;1.2798E-11
0.00938306;1.3349E-11
0.00938331;1.3964E-11
0.00938356;1.4646E-11
0.00938381;1.5399E-11
0.00938406;1.6227E-11
0.00938431;1.7132E-11
0.00938456;1.8117E-11
0.00938481;1.9182E-11
0.00938506;2.0329E-11
0.00938544;2.2202E-11
0.00938581;2.4255E-11
0.00938619;2.6479E-11
0.00938656;2.8862E-11
0.00938706;3.2253E-11
0.00938769;3.6759E-11
0.00938921;4.82E-11
0.00938999;5.3737E-11
0.00939051;5.7155E-11
0.00939103;6.0287E-11
0.00939154;6.3096E-11
0.00939206;6.5562E-11
0.00939258;6.7679E-11
0.0093931;6.9457E-11
0.00939361;7.092E-11
0.00939439;7.2588E-11
0.00939516;7.3735E-11
0.0093962;7.4668E-11
0.00939723;7.5155E-11
0.00939879;7.545E-11
0.00940189;7.5524E-11
0.00940293;7.5548E-11
0.01;7.4826E-11
0.0112941;7.8591E-11
0.0121449;8.1067E-11
0.0129603;8.3205E-11
0.014623;8.7563E-11
0.01526;8.9076E-11
0.0167508;9.2618E-11
0.0172163;9.3642E-11
0.0196616;9.9022E-11
0.0198421;9.9407E-11
0.02;9.9744E-11
0.0201411;1.0053E-10
0.0259067;1.3258E-10
0.03;1.5569E-10
0.0326919;1.7896E-10
0.0347471;1.9759E-10
0.0374115;2.2266E-10
0.04;2.4802E-10
0.0419301;2.7848E-10
0.0433611;3.0238E-10
0.0450123;3.3142E-10
0.0468512;3.656E-10
0.0485704;3.9939E-10
0.0493169;4.1469E-10
0.05;4.2869E-10
0.0525141;4.874E-10
0.0544173;5.3488E-10
0.0564904;5.8965E-10
0.0584238;6.4376E-10
0.0599882;6.8947E-10
0.06;6.8981E-10
0.0616852;7.5438E-10
0.0635772;8.3214E-10
0.06524;9.0458E-10
0.0666;9.6645E-10
0.0688478;1.07587E-09
0.07;1.13517E-09
0.0709704;1.19269E-09
0.0711782;1.20501E-09
0.073288;1.33777E-09
0.0755292;1.49001E-09
0.0770965;1.60362E-09
0.0790202;1.75145E-09
0.0796937;1.8069E-09
0.08;1.83212E-09
0.0801474;1.84425E-09
0.0802927;1.85621E-09
0.0805066;1.87383E-09
0.0805911;1.88078E-09
0.0807167;1.89189E-09
0.0809218;1.91003E-09
0.0811232;1.92784E-09
0.0813199;1.94523E-09
0.0815129;1.9623E-09
0.0817013;1.97897E-09
0.0818863;1.99533E-09
0.0820669;2.0113E-09
0.0822392;2.02654E-09
0.0822441;2.027E-09
0.0824171;2.04321E-09
0.0825868;2.05911E-09
0.0827525;2.07464E-09
0.0829151;2.08987E-09
0.0831261;2.10964E-09
0.0833328;2.129E-09
0.0835335;2.14781E-09
0.0837283;2.16607E-09
0.0839175;2.18379E-09
0.0841012;2.20101E-09
0.0841143;2.20223E-09
0.0842796;2.21872E-09
0.0844527;2.23599E-09
0.0846208;2.25276E-09
0.0847839;2.26903E-09
0.0849422;2.28482E-09
0.0850959;2.30015E-09
0.0853185;2.32236E-09
0.0855302;2.34348E-09
0.0857336;2.36377E-09
0.0859269;2.38305E-09
0.0861127;2.40158E-09
0.0861708;2.40738E-09
0.0862892;2.41995E-09
0.0864588;2.43794E-09
0.086676;2.46098E-09
0.0868801;2.48264E-09
0.0870719;2.50299E-09
0.0872521;2.5221E-09
0.0874213;2.54006E-09
0.0876549;2.56485E-09
0.0878698;2.58765E-09
0.0880632;2.60817E-09
0.0880646;2.60831E-09
0.0882411;2.62817E-09
0.0884591;2.65269E-09
0.0886502;2.67419E-09
0.0888178;2.69305E-09
0.0890291;2.71681E-09
0.0892063;2.73675E-09
0.0894041;2.75899E-09
0.0896165;2.78288E-09
0.089808;2.80443E-09
0.09;2.82603E-09
0.0908747;2.93546E-09
0.0916847;3.03679E-09
0.0921835;3.0992E-09
0.0924021;3.12654E-09
0.0931262;3.22427E-09
0.0939589;3.33666E-09
0.0946936;3.43583E-09
0.0949465;3.46996E-09
0.0956259;3.56779E-09
0.0964132;3.68115E-09
0.0967213;3.7255E-09
0.0972977;3.81428E-09
0.0982183;3.95608E-09
0.0992325;4.11231E-09
0.0994475;4.14542E-09
0.1;4.23396E-09
0.101199;4.47601E-09
0.103331;4.93366E-09
0.105576;5.45463E-09
0.107066;5.82373E-09
0.109037;6.34107E-09
0.11;6.61106E-09
0.110575;6.77223E-09
0.112266;7.27681E-09
0.114152;7.87399E-09
0.115702;8.39764E-09
0.116207;8.56831E-09
0.118088;9.24539E-09
0.12;9.97603E-09
0.122425;1.09856E-08
0.124978;1.21337E-08
0.126741;1.29808E-08
0.129454;1.43769E-08
0.129611;1.44649E-08
0.13;1.46822E-08
0.130917;1.51947E-08
0.132431;1.60624E-08
0.134986;1.76376E-08
0.137829;1.95326E-08
0.14;2.10863E-08
0.142436;2.29721E-08
0.14429;2.44964E-08
0.147117;2.69746E-08
0.15;2.97037E-08
0.15244;3.22749E-08
0.154296;3.43485E-08
0.157122;3.77115E-08
0.16;4.14048E-08
0.162443;4.52295E-08
0.165002;4.95453E-08
0.16784;5.47244E-08
0.17;5.8961E-08
0.172398;6.39689E-08
0.174305;6.81912E-08
0.177129;7.48747E-08
0.18;8.21736E-08
0.180896;7.89315E-08
0.181721;7.59426E-08
0.181905;7.52789E-08
0.182466;7.33889E-08
0.183152;7.10793E-08
0.183241;7.07787E-08
0.183994;6.84389E-08
0.184734;6.6139E-08
0.184908;6.55998E-08
0.185385;6.42415E-08
0.186222;6.18541E-08
0.186643;6.06556E-08
0.187101;5.94643E-08
0.187821;5.75903E-08
0.188554;5.56856E-08
0.188597;5.5584E-08
0.189297;5.3921E-08
0.19;5.22517E-08
0.19061;5.32628E-08
0.191184;5.42137E-08
0.191977;5.55276E-08
0.192681;5.66942E-08
0.192707;5.67413E-08
0.193365;5.7913E-08
0.193971;5.89917E-08
0.194715;6.03153E-08
0.195368;6.14776E-08
0.195719;6.21023E-08
0.196192;6.30203E-08
0.196885;6.43633E-08
0.197659;6.58646E-08
0.198461;6.74189E-08
0.199009;6.84823E-08
0.19924;6.893E-08
0.2;2.51351E-07
0.3;3.31093E-06
0.4;2.18848E-05
0.5;9.36805E-05
0.599882;0.000296829
0.699831;0.000757305
0.8;0.00164524
0.9;0.00315499
1;0.00549088
1.2;0.013361
1.4;0.0262603
1.6;0.0442967
1.8;0.0666855
2;0.0921237
2.21552;0.121563
2.41693;0.150307
2.8;0.206961
3.2;0.234009
3.4;0.25058
3.6;0.27103
3.82681;0.28925
4;0.304443
4.22963;0.312069
4.4;0.31661
4.6;0.332173
4.90206;0.343737
5.2;0.353399
5.6395;0.363077
5.84091;0.3689
6;0.372153
6.24374;0.374271
6.49029;0.377831
6.69311;0.38059
6.8;0.382431
7.2;0.380871
7.66396;0.383743
7.8;0.384388
8.05643;0.379523
8.5;0.372947
9;0.357705
9.5;0.331908
10;0.299788
10.1411;0.29106
10.2842;0.28221
10.4292;0.273234
10.5;0.268857
10.6481;0.258954
10.7984;0.24891
10.9507;0.238725
11;0.23543
11.1552;0.225971
11.3126;0.216378
11.4722;0.20665
11.5;0.204954
11.6622;0.196234
11.8268;0.187391
11.9936;0.178423
12;0.178081
12.1693;0.170537
12.341;0.162886
12.5;0.1558
12.6764;0.148533
12.8552;0.141163
13;0.135196
13.1834;0.128767
13.3694;0.122248
13.5;0.11767
13.6905;0.112011
13.8836;0.106273
14;0.102815
14.1975;0.097653
14.3978;0.0924182
14.5;0.0897476
14.7046;0.0855577
14.912;0.0813087
15;0.0795068
15.2116;0.0762406
15.4262;0.0729283
15.6439;0.0695692
15.8646;0.0661628
16;0.0640726
16.2257;0.0616293
16.4546;0.0591515
16.6868;0.0566387
16.9222;0.0540905
17;0.0532485
17.2398;0.051439
17.4831;0.0496039
17.7297;0.0477429
17.9799;0.0458557
18;0.0457037
18.2539;0.0444377
18.5115;0.0431538
18.7726;0.0418518
19;0.0407184
19.2681;0.0395965
19.5399;0.0384588
19.8156;0.0373051
20;0.0365332
20.2822;0.0356272
20.5683;0.0347084
20.8585;0.0337767
21;0.0333223
21.2963;0.0326141
21.5967;0.0318958
21.9014;0.0311675
22;0.0309318
22.3104;0.0305403
22.6251;0.0301434
22.9443;0.0297408
23;0.0296706
23.3245;0.029041
23.6536;0.0284025
23.9873;0.027755
24;0.0277303
24.3386;0.0271322
24.682;0.0265256
25;0.0259638
25.3527;0.0254881
25.7104;0.0250056
26;0.024615
26.3668;0.0237251
26.7388;0.0228226
27;0.0221889
27.3809;0.0217499
27.7672;0.0213046
28;0.0210363
28.395;0.0207532
28.7956;0.0204662
29;0.0203197
29.4091;0.0198726
29.824;0.0194192
30;0.0192269
30.4232;0.0189416
30.8525;0.0186523
31.2877;0.0183589
31.7292;0.0180614
32;0.0178788
32.4515;0.0173815
32.9093;0.0168772
33.3736;0.0163658
33.8444;0.0158472
34;0.0156758
34.4797;0.0152409
34.9661;0.0147998
35.4594;0.0143525
35.9597;0.0138988
36;0.0138623
36.5079;0.0134894
37.023;0.0131113
37.5453;0.0127278
38;0.012394
38.5361;0.0120655
39.0798;0.0117324
39.6311;0.0113946
40;0.0111686
40.5643;0.0108328
41.1366;0.0104923
41.717;0.010147
42;0.00997859
42.5925;0.00968002
43.1934;0.00937723
43.8028;0.00907017
44;0.00897082
44.6208;0.0086494
45.2503;0.00832345
45.8887;0.0079929
46;0.00793526
46.649;0.00769138
47.3071;0.00744405
47.9745;0.00719324
48;0.00718367
48.6772;0.0069115
49.3639;0.00663548
50;0.00637984
50.7054;0.00615578
51.4208;0.00592856
52;0.00574458
52.7336;0.0055308
53.4776;0.00531401
54;0.00516178
54.7618;0.00500213
55.5344;0.00484023
56;0.00474267
56.7901;0.0045589
57.5913;0.00437254
58;0.00427747
58.8183;0.00410414
59.6481;0.00392835
60;0.00385381